Sensor Position (Degrees),Light Intensity (Volts)
0.0,0.08768
0.0,0.08462
0.0,0.08043
0.0,0.08735
0.0,0.08317
0.0,0.08397
0.0,0.08075
0.0,0.08381
0.0,0.08446
0.0,0.08945
0.0,0.08558
0.0,0.08574
0.0,0.07818
0.0,0.08478
0.0,0.08381
0.0,0.08751
0.0,0.08188
0.0,0.08269
0.0,0.08478
0.0,0.08381
0.0,0.08558
0.0,0.08301
0.0,0.08301
0.0,0.08462
0.0,0.08558
0.0,0.0851
0.0,0.08896
0.0,0.08446
0.0,0.08526
0.0,0.08027
0.0,0.08091
0.0,0.08124
0.0,0.08252
0.0,0.07995
0.0,0.08204
0.0,0.0785
0.0,0.08108
0.0,0.08381
0.0,0.08188
0.0,0.08108
0.0,0.07947
0.0,0.08011
0.0,0.08462
0.0,0.07963
0.0,0.08043
0.0,0.07753
0.0,0.08124
0.0,0.08317
0.0,0.0822
0.0,0.08124
0.0,0.08462
0.0,0.07882
0.0,0.08108
0.0,0.08381
0.0,0.08027
0.0,0.08108
0.0,0.0851
0.0,0.08156
0.0,0.08397
0.0,0.08462
0.0,0.08236
0.0,0.08333
0.0,0.0843
0.0,0.08091
0.0,0.08349
0.0,0.0814
0.0,0.07882
0.0,0.08413
0.0,0.07995
0.0,0.07995
0.0,0.08462
0.0,0.08156
0.0,0.08896
0.0,0.08494
0.0,0.08091
0.0,0.08365
0.0,0.08301
0.0,0.07898
0.0,0.08204
0.0,0.08124
0.0,0.0822
0.0,0.08124
0.0,0.07931
0.0,0.08252
0.0,0.08269
0.0,0.08349
0.0,0.0822
0.0,0.08027
0.0,0.08188
0.0,0.07979
0.0,0.08333
0.0,0.08542
0.0,0.08317
0.0,0.0814
0.0,0.08108
0.0,0.07947
0.0,0.0814
0.0,0.08397
0.0,0.08156
0.0,0.08252
0.0,0.07802
0.0,0.07609
0.0,0.08285
0.0,0.08526
0.0,0.08236
0.0,0.08703
0.0,0.08623
0.0,0.08526
0.0,0.08349
0.0,0.08252
0.0,0.08494
0.0,0.08027
0.0,0.08542
0.0,0.08478
0.0,0.0814
0.0,0.08349
0.0,0.0851
0.0,0.08719
0.0,0.07979
0.0,0.08478
0.0,0.08075
0.0,0.07947
0.0,0.08091
0.0,0.08735
0.0,0.0843
0.0,0.08735
0.0,0.08269
0.0,0.08156
0.0,0.08124
0.0,0.08172
0.0,0.08075
0.0,0.08912
0.0,0.0843
0.0,0.08413
0.0,0.08204
0.0,0.08446
0.0,0.08478
0.0,0.07705
0.0,0.08269
0.0,0.07802
0.0,0.08301
0.0,0.07979
0.0,0.08301
-0.0203,0.08059
-0.0203,0.08252
0.0,0.08526
0.0,0.0859
0.0,0.08059
-0.01015,0.08558
-0.01015,0.08574
-0.0203,0.08285
0.0,0.08784
0.0,0.08735
-0.01015,0.08381
-0.0203,0.08269
-0.0203,0.08204
-0.0203,0.0859
-0.0203,0.0814
-0.03046,0.08172
-0.05076,0.08027
-0.06091,0.08365
-0.06091,0.08751
-0.06091,0.08252
-0.06091,0.08494
-0.06091,0.08381
-0.06091,0.08719
-0.06091,0.08623
-0.06091,0.08301
-0.06091,0.0822
-0.06091,0.08204
-0.06091,0.08735
-0.06091,0.08333
-0.06091,0.08623
-0.06091,0.08494
-0.06091,0.08269
-0.06091,0.08655
-0.06091,0.08832
-0.06091,0.08832
-0.06091,0.08011
-0.06091,0.08607
-0.06091,0.08542
-0.06091,0.08735
-0.06091,0.0814
-0.06091,0.08172
-0.06091,0.088
-0.06091,0.08365
-0.06091,0.08526
-0.06091,0.08462
-0.06091,0.08639
-0.06091,0.0851
-0.06091,0.08848
-0.05076,0.08381
-0.05076,0.08558
-0.05076,0.08285
-0.04061,0.08574
-0.04061,0.08735
-0.04061,0.08558
-0.04061,0.08365
-0.04061,0.08172
-0.04061,0.088
-0.04061,0.09186
-0.04061,0.0843
-0.04061,0.08735
-0.04061,0.08735
-0.03046,0.08446
-0.03046,0.0859
-0.03046,0.08574
-0.03046,0.08446
-0.0203,0.07963
-0.01015,0.08446
0.0,0.08317
0.0,0.0859
0.0,0.08912
0.01015,0.088
0.0203,0.08671
0.04061,0.08558
0.05076,0.0859
0.09137,0.0822
0.15228,0.08864
0.17259,0.08446
0.24365,0.08961
0.30457,0.0822
0.33503,0.08526
0.50761,0.08687
0.60914,0.08993
0.64975,0.08639
0.82234,0.08639
0.8934,0.0843
0.93401,0.08558
1.00508,0.08703
1.03553,0.08333
1.05584,0.08494
1.09645,0.08574
1.13706,0.08671
1.14721,0.08542
1.19797,0.08655
1.24873,0.08719
1.26904,0.08446
1.35025,0.08526
1.43147,0.08735
1.47208,0.08719
1.5736,0.08124
1.63452,0.08413
1.66497,0.08719
1.73604,0.08671
1.75635,0.08446
1.75635,0.08703
1.75635,0.08526
1.75635,0.088
1.7665,0.08896
1.7665,0.08397
1.7665,0.08574
1.7868,0.0888
1.81726,0.0851
1.84772,0.0859
1.87817,0.0843
1.9797,0.08655
2.05076,0.08172
2.10152,0.08961
2.2132,0.08751
2.30457,0.09025
2.34518,0.0851
2.45685,0.08832
2.55838,0.08542
2.58883,0.08381
2.75127,0.08896
2.86294,0.08961
2.91371,0.08558
3.08629,0.08446
3.23858,0.08478
3.30964,0.0888
3.51269,0.08172
3.65482,0.08784
3.71574,0.08784
3.90863,0.08526
3.98985,0.08719
4.04061,0.08719
4.15228,0.0888
4.22335,0.08768
4.25381,0.0843
4.38579,0.08639
4.48731,0.088
4.54822,0.08816
4.70051,0.08623
4.81218,0.08607
4.8731,0.08848
5.03553,0.09057
5.17766,0.08639
5.21827,0.08333
5.42132,0.08478
5.5736,0.0851
5.61421,0.08671
5.81726,0.08896
5.94924,0.0859
6.03046,0.08446
6.27411,0.08928
6.43655,0.08204
6.51777,0.09025
6.75127,0.08751
6.88325,0.08671
6.93401,0.08703
7.1066,0.08671
7.18782,0.08961
7.21827,0.08446
7.36041,0.08703
7.47208,0.08993
7.52284,0.08864
7.70558,0.09331
7.81726,0.08784
7.86802,0.08928
8.07107,0.0859
8.16244,0.08912
8.2132,0.08333
8.35533,0.08607
8.46701,0.09283
8.51777,0.08365
8.6802,0.09025
8.79188,0.09138
8.84264,0.09073
9.01523,0.08928
9.1269,0.08768
9.17766,0.08832
9.36041,0.08945
9.46193,0.09089
9.5533,0.08655
9.71574,0.08864
9.83756,0.08993
9.89848,0.09299
10.01015,0.08751
10.10152,0.08735
10.13198,0.08896
10.24365,0.09492
10.34518,0.09073
10.37563,0.08977
10.58883,0.09492
10.70051,0.09363
10.73096,0.09283
10.86294,0.09266
10.95431,0.09154
10.98477,0.09154
11.09645,0.09331
11.14721,0.09106
11.16751,0.09073
11.25888,0.09266
11.3198,0.09476
11.35025,0.08751
11.43147,0.09299
11.48223,0.08896
11.50254,0.0917
11.59391,0.088
11.65482,0.08671
11.69543,0.09073
11.82741,0.09202
11.92893,0.09154
11.96954,0.09299
12.11168,0.08719
12.22335,0.09299
12.26396,0.09186
12.38579,0.09186
12.49746,0.0925
12.53807,0.08896
12.70051,0.09669
12.80203,0.09025
12.84264,0.09266
13.00508,0.09154
13.1066,0.09299
13.15736,0.09041
13.29949,0.09122
13.39086,0.08768
13.42132,0.09266
13.5736,0.09138
13.68528,0.09041
13.72589,0.09427
13.84772,0.09669
13.92893,0.09057
13.95939,0.09266
14.08122,0.09476
14.14213,0.08993
14.18274,0.08816
14.27411,0.0925
14.34518,0.09266
14.37563,0.08896
14.46701,0.09411
14.54822,0.08945
14.57868,0.09476
14.71066,0.09122
14.80203,0.09476
14.8731,0.08735
15.01523,0.09749
15.1066,0.09347
15.16751,0.09138
15.36041,0.09411
15.47208,0.09524
15.53299,0.09025
15.63452,0.09411
15.70558,0.0917
15.74619,0.09331
15.85787,0.09605
15.91878,0.09347
15.94924,0.0954
16.04061,0.10007
16.09137,0.09846
16.12183,0.0925
16.26396,0.09621
16.32487,0.09331
16.35533,0.09943
16.48731,0.102
16.55838,0.09637
16.60914,0.10055
16.77157,0.0983
16.8731,0.10071
16.91371,0.09894
17.05584,0.09846
17.14721,0.10329
17.19797,0.09733
17.35025,0.10087
17.43147,0.10474
17.46193,0.10281
17.56345,0.10361
17.60406,0.10635
17.62437,0.10393
17.73604,0.10715
17.83756,0.10892
17.88832,0.11262
18.10152,0.11697
18.20305,0.1152
18.30457,0.11536
18.48731,0.12888
18.59898,0.13146
18.64975,0.13033
18.8934,0.14594
19.01523,0.15946
19.07614,0.15898
19.35025,0.19085
19.48223,0.21081
19.54315,0.21934
19.72589,0.2673
19.85787,0.29499
19.96954,0.31785
20.11168,0.36581
20.18274,0.40171
20.26396,0.42923
20.40609,0.48669
20.45685,0.52291
20.51777,0.54448
20.57868,0.60049
20.62944,0.62383
20.67005,0.6396
20.78173,0.67904
20.82234,0.69513
20.84264,0.7035
20.90355,0.73923
20.93401,0.75501
20.97462,0.77175
21.05584,0.79815
21.1066,0.81038
21.17766,0.83082
21.3401,0.85802
21.44162,0.86945
21.54315,0.87846
21.74619,0.89231
21.84772,0.88667
21.88832,0.88072
22.06091,0.86253
22.14213,0.84418
22.17259,0.8268
22.28426,0.79621
22.37563,0.76515
22.40609,0.75807
22.51777,0.71316
22.60914,0.67823
22.63959,0.66375
22.74112,0.61916
22.82234,0.58423
22.86294,0.56299
22.97462,0.51486
23.06599,0.478
23.1066,0.4611
23.24873,0.41587
23.36041,0.38094
23.41117,0.36275
23.5533,0.31736
23.66497,0.2908
23.71574,0.27584
23.88832,0.2393
23.9797,0.21274
24.0203,0.20984
24.14213,0.18232
24.2132,0.16864
24.2335,0.16107
24.29442,0.149
24.34518,0.14288
24.36548,0.13628
24.43655,0.13113
24.49746,0.12293
24.51777,0.12325
24.61929,0.116
24.71066,0.1123
24.75127,0.11214
24.88325,0.10989
24.97462,0.10377
25.02538,0.10763
25.13706,0.10522
25.22843,0.10345
25.26904,0.10184
25.41117,0.1049
25.49239,0.10264
25.53299,0.09765
25.67513,0.09524
25.77665,0.09926
25.80711,0.10023
25.93909,0.09991
26.03046,0.09943
26.07107,0.09765
26.18274,0.09669
26.26396,0.09943
26.30457,0.09669
26.36548,0.09943
26.4467,0.10232
26.49746,0.10136
26.70051,0.09444
26.84264,0.09733
26.8934,0.09894
27.06599,0.09943
27.17766,0.09588
27.22843,0.10055
27.39086,0.10248
27.49239,0.09524
27.54315,0.10248
27.72589,0.09814
27.85787,0.09717
27.92893,0.09588
28.09137,0.0954
28.2132,0.09878
28.27411,0.09266
28.4467,0.09943
28.57868,0.09975
28.63959,0.10136
28.79188,0.0983
28.90355,0.10023
28.95431,0.09926
29.1269,0.09605
29.24873,0.09685
29.3198,0.10087
29.52284,0.09733
29.67513,0.10055
29.73604,0.09846
29.98985,0.09765
30.15228,0.1012
30.22335,0.09572
30.4264,0.09685
30.57868,0.09605
30.63959,0.09556
30.86294,0.10055
31.01523,0.09814
31.08629,0.09669
31.29949,0.09749
31.44162,0.09894
31.52284,0.10136
31.74619,0.09862
31.87817,0.0983
31.94924,0.10039
32.16244,0.10152
32.30457,0.09943
32.37563,0.0983
32.59898,0.09926
32.79188,0.0983
32.88325,0.09959
33.09645,0.0946
33.26904,0.09959
33.35025,0.09765
33.56345,0.09846
33.71574,0.09717
33.79695,0.09782
34.0,0.09943
34.12183,0.0983
34.19289,0.09508
34.37563,0.09862
34.46701,0.09717
34.50761,0.10168
34.64975,0.09894
34.75127,0.10168
34.82234,0.09894
34.96447,0.09782
35.09645,0.09926
35.16751,0.10007
35.35025,0.09701
35.50254,0.10023
35.56345,0.10071
35.75635,0.10297
35.87817,0.09926
35.92893,0.09926
36.09137,0.09798
36.17259,0.09653
36.22335,0.09959
36.38579,0.09427
36.48731,0.10313
36.54822,0.09588
36.71066,0.10184
36.81218,0.10152
36.86294,0.09878
37.07614,0.09846
37.22843,0.09782
37.30964,0.10297
37.5533,0.10039
37.70558,0.10232
37.7868,0.10329
38.0203,0.10264
38.17259,0.0991
38.25381,0.10264
38.4467,0.09846
38.57868,0.10264
38.64975,0.10506
38.85279,0.10506
39.00508,0.10087
39.08629,0.10023
39.29949,0.09749
39.46193,0.10458
39.56345,0.10152
39.74619,0.10248
39.85787,0.10538
39.89848,0.10602
40.03046,0.1049
40.12183,0.10377
40.17259,0.09959
40.29442,0.10216
40.38579,0.10377
40.41624,0.10039
40.51777,0.10313
40.58883,0.10474
40.61929,0.10264
40.76142,0.10136
40.86294,0.0983
40.90355,0.10635
41.05584,0.10313
41.17766,0.1049
41.23858,0.10248
41.44162,0.10506
41.56345,0.10023
41.62437,0.10297
41.80711,0.10554
41.94924,0.10828
42.01015,0.10586
42.2132,0.10393
42.36548,0.10216
42.41624,0.10667
42.61929,0.102
42.78173,0.10297
42.84264,0.10168
43.06599,0.10747
43.22843,0.102
43.26904,0.1049
43.48223,0.10248
43.64467,0.10361
43.69543,0.10184
43.92893,0.10474
44.06091,0.10683
44.13198,0.11069
44.36548,0.1057
44.51777,0.10747
44.57868,0.10216
44.75127,0.10635
44.8934,0.10812
44.93401,0.10538
45.08629,0.10248
45.19797,0.10329
45.22843,0.10602
45.37056,0.10087
45.48223,0.10361
45.53299,0.10103
45.67513,0.1049
45.77665,0.10441
45.81726,0.10538
46.0,0.10458
46.14213,0.10957
46.19289,0.09798
46.37563,0.10345
46.49746,0.10908
46.53807,0.10458
46.74112,0.10779
46.84264,0.10619
46.90355,0.10506
47.03553,0.10441
47.15736,0.10747
47.19797,0.10667
47.38071,0.10667
47.50254,0.10554
47.56345,0.11101
47.74619,0.10989
47.87817,0.11101
47.92893,0.10651
48.07107,0.10699
48.19289,0.11021
48.25381,0.10619
48.39594,0.10281
48.50761,0.10554
48.54822,0.10538
48.69036,0.1115
48.78173,0.10506
48.82234,0.1086
48.99492,0.10361
49.11675,0.10667
49.17766,0.10281
49.36041,0.10876
49.50254,0.10812
49.5533,0.10892
49.7665,0.11069
49.91878,0.1057
49.98985,0.1086
50.24365,0.10763
50.38579,0.10876
50.45685,0.11134
50.63959,0.11069
50.75127,0.10973
50.80203,0.10876
50.98477,0.11085
51.1269,0.10377
51.17766,0.11182
51.37056,0.1086
51.50254,0.11053
51.54315,0.11118
51.71574,0.10731
51.83756,0.10345
51.88832,0.1094
52.06091,0.11166
52.19289,0.10973
52.25381,0.11214
52.47716,0.10779
52.62944,0.10812
52.71066,0.10635
52.94416,0.10506
53.1066,0.10924
53.19797,0.10876
53.43147,0.1115
53.5736,0.1086
53.63452,0.11069
53.84772,0.11053
54.0,0.11198
54.07107,0.10361
54.28426,0.10441
54.4264,0.10844
54.49746,0.11359
54.74112,0.11021
54.90355,0.11021
54.97462,0.10747
55.19797,0.10844
55.35025,0.11053
55.42132,0.10747
55.63452,0.10651
55.7665,0.10796
55.81726,0.11134
55.98985,0.11021
56.09137,0.11278
56.13198,0.10667
56.25381,0.1086
56.32487,0.11005
56.35533,0.10667
56.45685,0.10876
56.52792,0.11085
56.56853,0.10828
56.64975,0.11021
56.72081,0.1057
56.74112,0.11278
56.84264,0.10796
56.91371,0.11085
56.94416,0.10731
57.02538,0.10586
57.09645,0.10699
57.1269,0.10957
57.24873,0.10828
57.36041,0.11005
57.43147,0.10957
57.62437,0.10989
57.7665,0.10908
57.83756,0.1094
58.06091,0.10619
58.2132,0.11375
58.26396,0.10554
58.45685,0.1086
58.59898,0.10876
58.64975,0.10715
58.8731,0.11166
59.02538,0.11118
59.09645,0.10763
59.3198,0.10828
59.47208,0.11118
59.54315,0.1057
59.72589,0.10844
59.84772,0.11262
59.90863,0.10779
60.08122,0.10731
60.20305,0.10957
60.26396,0.10506
60.4467,0.10522
60.54822,0.10763
60.59898,0.10586
60.75127,0.10892
60.8731,0.10232
60.93401,0.10973
61.11675,0.10667
61.25888,0.10667
61.32995,0.10828
61.61421,0.10441
61.81726,0.10393
61.91878,0.10441
62.24365,0.10731
62.46701,0.10297
62.58883,0.10667
62.95431,0.10892
63.18782,0.10393
63.3198,0.11391
63.66497,0.10908
63.90863,0.10779
64.0203,0.1094
64.35533,0.1094
64.56853,0.10908
64.63959,0.11214
64.91371,0.10812
65.08629,0.10377
65.15736,0.10667
65.36041,0.11214
65.47208,0.10506
65.51269,0.10892
65.64467,0.10763
65.74619,0.10248
65.7868,0.10908
65.90863,0.10731
66.0,0.10747
66.04061,0.10619
66.17259,0.10586
66.26396,0.10474
66.32487,0.10297
66.48731,0.10313
66.58883,0.10635
66.64975,0.10699
66.82234,0.10699
66.91371,0.10667
66.96447,0.1094
67.1269,0.10602
67.24873,0.10313
67.28934,0.10796
67.44162,0.10812
67.52284,0.10619
67.5736,0.10506
67.73604,0.10329
67.84772,0.10635
67.91878,0.10651
68.08122,0.10586
68.18274,0.10522
68.2132,0.10377
68.31472,0.10731
68.36548,0.10667
68.40609,0.10619
68.53807,0.10812
68.61929,0.10667
68.6599,0.10602
68.77157,0.10779
68.88325,0.10377
68.95431,0.10731
69.16751,0.1057
69.35025,0.10506
69.44162,0.10313
69.81726,0.10747
70.08122,0.10506
70.2132,0.10554
70.61929,0.10264
70.88325,0.10361
71.02538,0.10635
71.43147,0.10667
71.69543,0.10602
71.79695,0.10538
72.13198,0.10586
72.29442,0.10441
72.36548,0.1049
72.52792,0.102
72.59898,0.10957
72.63959,0.10667
72.79188,0.10763
72.91371,0.10731
73.02538,0.11069
73.29949,0.10538
73.52284,0.10441
73.66497,0.10538
74.0203,0.10377
74.25381,0.10796
74.35533,0.10957
74.62944,0.10441
74.76142,0.10168
74.81218,0.1049
74.99492,0.10586
75.09645,0.11053
75.13706,0.10924
75.26904,0.11134
75.37056,0.10747
75.44162,0.10844
75.63452,0.1115
75.75635,0.1086
75.81726,0.10458
76.04061,0.1086
76.18274,0.10377
76.25381,0.10763
76.50761,0.11005
76.6802,0.11069
76.76142,0.11021
77.05584,0.11134
77.27919,0.11214
77.39086,0.11633
77.75635,0.14723
77.96954,0.1717
78.09137,0.1754
78.38579,0.18361
78.56853,0.17765
78.64975,0.17636
78.8731,0.18135
79.00508,0.18763
79.06599,0.18425
79.22843,0.18409
79.36041,0.18248
79.44162,0.17926
79.65482,0.17347
79.79695,0.15995
79.86802,0.15898
80.08122,0.14208
80.2132,0.13371
80.28426,0.13258
80.48731,0.12405
80.56853,0.11729
80.61929,0.11858
80.73096,0.11954
80.80203,0.11327
80.84264,0.11278
80.93401,0.11375
81.00508,0.1123
81.02538,0.11858
81.15736,0.11069
81.24873,0.11375
81.30964,0.11504
81.52284,0.11423
81.67513,0.11295
81.74619,0.11407
81.96954,0.11021
82.12183,0.11262
82.2132,0.11021
82.50761,0.11182
82.69036,0.11488
82.77157,0.11311
82.98477,0.11021
83.13706,0.1123
83.18782,0.11005
83.32995,0.116
83.43147,0.11343
83.47208,0.11359
83.60406,0.11246
83.68528,0.11794
83.72589,0.11246
83.84772,0.11359
83.92893,0.11504
83.96954,0.11777
84.10152,0.11649
84.20305,0.11375
84.25381,0.11681
84.40609,0.11456
84.54822,0.11246
84.60914,0.1152
84.84264,0.11826
85.02538,0.11552
85.1269,0.11697
85.41117,0.11729
85.59391,0.11311
85.65482,0.11504
85.83756,0.11552
85.92893,0.11842
85.96954,0.11295
86.08122,0.11295
86.17259,0.11826
86.22335,0.11681
86.38579,0.11874
86.49746,0.11536
86.53807,0.11616
86.73096,0.11842
86.8731,0.116
86.94416,0.11552
87.15736,0.11665
87.28934,0.11826
87.36041,0.11729
87.53299,0.11439
87.64467,0.11922
87.69543,0.11633
87.83756,0.11616
87.91878,0.11166
87.96954,0.11552
88.12183,0.11697
88.2335,0.11777
88.28426,0.11472
88.43655,0.11761
88.52792,0.12003
88.56853,0.11794
88.69036,0.11826
88.75127,0.11375
88.78173,0.11987
88.84264,0.11552
88.90355,0.1152
88.92386,0.12099
88.99492,0.1189
89.06599,0.11858
89.08629,0.1226
89.18782,0.11954
89.26904,0.1152
89.29949,0.12164
89.43147,0.11874
89.52284,0.11552
89.5736,0.11552
89.74619,0.11858
89.84772,0.11504
89.91878,0.11906
90.08122,0.11987
